File: ursf1   13.11.19  02:45:06
Comment: ursf1
                    P1V325-L                                P1V322-R                                
Time[secs]          Force[N]            Time[secs]          Force[N]            
       0.000           0.000                   0.000         490.000            
       0.005           0.000                   0.005         484.120            
       0.010           0.000                   0.010         482.160            
       0.015           0.000                   0.015         484.120            
       0.020           0.000                   0.020         484.120            
       0.025           0.000                   0.025         484.120            
       0.030           0.000                   0.030         482.160            
       0.035           0.000                   0.035         484.120            
       0.040           0.000                   0.040         484.120            
       0.045           0.000                   0.045         484.120            
       0.050           0.000                   0.050         484.120            
       0.055           0.000                   0.055         478.240            
       0.060           0.000                   0.060         478.240            
       0.065           0.000                   0.065         478.240            
       0.070           0.000                   0.070         482.160            
       0.075           0.000                   0.075         492.500            
       0.080           0.000                   0.080         480.680            
       0.085           0.000                   0.085         484.620            
       0.090           0.000                   0.090         478.710            
       0.095           0.000                   0.095         480.680            
       0.100           0.000                   0.100         480.680            
       0.105           0.000                   0.105         480.680            
       0.110           0.000                   0.110         484.620            
       0.115           0.000                   0.115         480.680            
       0.120           0.000                   0.120         492.500            
       0.125           0.000                   0.125         478.710            
       0.130           0.000                   0.130         480.680            
       0.135           0.000                   0.135         484.620            
       0.140           0.000                   0.140         486.590            
       0.145           0.000                   0.145         486.590            
       0.150           0.000                   0.150         490.000            
       0.155           0.000                   0.155         484.120            
       0.160           0.000                   0.160         484.120            
       0.165           0.000                   0.165         482.160            
       0.170           0.000                   0.170         484.120            
       0.175           0.000                   0.175         484.120            
       0.180           0.000                   0.180         482.160            
       0.185           0.000                   0.185         482.160            
       0.190           0.000                   0.190         482.160            
       0.195           0.000                   0.195         476.280            
       0.200           0.000                   0.200         482.160            
       0.205           0.000                   0.205         484.120            
       0.210           0.000                   0.210         476.280            
       0.215           0.000                   0.215         478.240            
       0.220           0.000                   0.220         482.160            
       0.225           0.000                   0.225         483.120            
       0.230           0.000                   0.230         487.080            
       0.235           0.000                   0.235         481.140            
       0.240           0.000                   0.240         477.180            
       0.245           0.000                   0.245         479.160            
       0.250           0.000                   0.250         481.140            
       0.255           0.000                   0.255         479.160            
       0.260           0.000                   0.260         483.120            
       0.265           0.000                   0.265         479.160            
       0.270           0.000                   0.270         483.120            
       0.275           0.000                   0.275         483.120            
       0.280           0.000                   0.280         487.080            
       0.285           0.000                   0.285         489.060            
       0.290           0.000                   0.290         495.000            
       0.295           0.000                   0.295         489.060            
       0.300           0.000                   0.300         497.500            
       0.305           0.000                   0.305         489.540            
       0.310           0.000                   0.310         491.530            
       0.315           0.000                   0.315         489.540            
       0.320           0.000                   0.320         489.540            
       0.325           0.000                   0.325         485.560            
       0.330           0.000                   0.330         485.560            
       0.335           0.000                   0.335         483.570            
       0.340           0.000                   0.340         489.540            
       0.345           0.000                   0.345         485.560            
       0.350           0.000                   0.350         483.570            
       0.355           0.000                   0.355         485.560            
       0.360           0.000                   0.360         479.590            
       0.365           0.000                   0.365         481.580            
       0.370           0.000                   0.370         475.610            
       0.375           0.000                   0.375         478.640            
       0.380           0.000                   0.380         470.920            
       0.385           0.000                   0.385         468.990            
       0.390           0.000                   0.390         468.990            
       0.395           0.000                   0.395         468.990            
       0.400           0.000                   0.400         468.990            
       0.405           0.000                   0.405         467.060            
       0.410           0.000                   0.410         468.990            
       0.415           0.000                   0.415         468.990            
       0.420           0.000                   0.420         468.990            
       0.425           0.000                   0.425         468.990            
       0.430           0.000                   0.430         470.920            
       0.435           0.000                   0.435         476.710            
       0.440           0.000                   0.440         476.710            
       0.445           0.000                   0.445         482.500            
       0.450           0.000                   0.450         487.080            
       0.455           0.000                   0.455         481.140            
       0.460           0.000                   0.460         481.140            
       0.465           0.000                   0.465         487.080            
       0.470           0.000                   0.470         483.120            
       0.475           0.000                   0.475         495.000            
       0.480           0.000                   0.480         487.080            
       0.485           0.000                   0.485         483.120            
       0.490           0.000                   0.490         487.080            
       0.495           0.000                   0.495         487.080            
       0.500           0.000                   0.500         487.080            
       0.505           0.000                   0.505         487.080            
       0.510           0.000                   0.510         487.080            
       0.515           0.000                   0.515         483.120            
       0.520           0.000                   0.520         487.080            
       0.525           0.000                   0.525         497.500            
       0.530           0.000                   0.530         489.540            
       0.535           0.000                   0.535         485.560            
       0.540           0.000                   0.540         485.560            
       0.545           0.000                   0.545         481.580            
       0.550           0.000                   0.550         483.570            
       0.555           0.000                   0.555         481.580            
       0.560           0.000                   0.560         483.570            
       0.565           0.000                   0.565         483.570            
       0.570           0.000                   0.570         483.570            
       0.575           0.000                   0.575         481.580            
       0.580           0.000                   0.580         481.580            
       0.585           0.000                   0.585         481.580            
       0.590           0.000                   0.590         475.610            
       0.595           0.000                   0.595         475.610            
       0.600           0.000                   0.600         485.000            
       0.605           0.000                   0.605         477.240            
       0.610           0.000                   0.610         473.360            
       0.615           0.000                   0.615         471.420            
       0.620           0.000                   0.620         469.480            
       0.625           0.000                   0.625         465.600            
       0.630           0.000                   0.630         463.660            
       0.635           0.000                   0.635         461.720            
       0.640           0.000                   0.640         461.720            
       0.645           0.000                   0.645         453.960            
       0.650           0.000                   0.650         453.960            
       0.655           0.000                   0.655         446.200            
       0.660           0.000                   0.660         459.780            
       0.665           0.000                   0.665         446.200            
       0.670           0.000                   0.670         438.440            
       0.675           0.000                   0.675         447.500            
       0.680           0.000                   0.680         438.550            
       0.685           0.000                   0.685         429.600            
       0.690           0.000                   0.690         434.970            
       0.695           0.000                   0.695         424.230            
       0.700           0.000                   0.700         424.230            
       0.705           0.000                   0.705         422.440            
       0.710           0.000                   0.710         418.860            
       0.715           0.000                   0.715         426.020            
       0.720           0.000                   0.720         422.440            
       0.725           0.000                   0.725         429.600            
       0.730           0.000                   0.730         431.390            
       0.735           0.000                   0.735         434.970            
       0.740           0.000                   0.740         438.550            
       0.745           0.000                   0.745         436.760            
       0.750           0.000                   0.750         446.500            
       0.755           0.000                   0.755         440.800            
       0.760           0.000                   0.760         444.600            
       0.765           0.000                   0.765         448.400            
       0.770           0.000                   0.770         456.000            
       0.775           0.000                   0.775         459.800            
       0.780           0.000                   0.780         456.000            
       0.785           0.000                   0.785         454.100            
       0.790           0.000                   0.790         454.100            
       0.795           0.000                   0.795         461.700            
       0.800           0.000                   0.800         461.700            
       0.805           0.000                   0.805         463.600            
       0.810           0.000                   0.810         467.400            
       0.815           0.000                   0.815         475.000            
       0.820           0.000                   0.820         475.000            
       0.825           0.000                   0.825         486.000            
       0.830           0.000                   0.830         490.500            
       0.835           0.000                   0.835         490.500            
       0.840           0.000                   0.840         501.750            
       0.845           0.000                   0.845         499.500            
       0.850           0.000                   0.850         504.000            
       0.855           0.000                   0.855         510.750            
       0.860           0.000                   0.860         519.750            
       0.865           0.000                   0.865         519.750            
       0.870           0.000                   0.870         528.750            
       0.875           0.000                   0.875         533.250            
       0.880           0.000                   0.880         542.250            
       0.885           0.000                   0.885         546.750            
       0.890           0.000                   0.890         553.500            
       0.895           0.000                   0.895         562.500            
       0.900           0.000                   0.900         582.610            
       0.905           0.000                   0.905         579.740            
       0.910           0.000                   0.910         591.220            
       0.915           0.000                   0.915         602.700            
       0.920           0.000                   0.920         617.050            
       0.925           0.000                   0.925         625.660            
       0.930           0.000                   0.930         637.140            
       0.935           0.000                   0.935         648.620            
       0.940           0.000                   0.940         660.100            
       0.945           0.000                   0.945         674.450            
       0.950           0.000                   0.950         683.060            
       0.955           0.000                   0.955         688.800            
       0.960           0.000                   0.960         700.280            
       0.965           0.000                   0.965         708.890            
       0.970           0.000                   0.970         717.500            
       0.975           0.000                   0.975         729.560            
       0.980           0.000                   0.980         729.560            
       0.985           0.000                   0.985         738.530            
       0.990           0.000                   0.990         738.530            
       0.995           0.000                   0.995         744.510            
       1.000           0.000                   1.000         747.500            
       1.005           0.000                   1.005         747.500            
       1.010           0.000                   1.010         747.500            
       1.015           0.000                   1.015         747.500            
       1.020           0.000                   1.020         735.540            
       1.025           0.000                   1.025         729.560            
       1.030           0.000                   1.030         726.570            
       1.035           0.000                   1.035         717.600            
       1.040           0.000                   1.040         705.640            
       1.045           0.000                   1.045         696.670            
       1.050           0.000                   1.050         685.000            
       1.055           0.000                   1.055         668.560            
       1.060           0.000                   1.060         649.380            
       1.065           0.000                   1.065         635.680            
       1.070           0.000                   1.070         619.240            
       1.075           0.000                   1.075         602.800            
       1.080           0.000                   1.080         580.880            
       1.085           0.000                   1.085         561.700            
       1.090           0.000                   1.090         539.780            
       1.095           0.000                   1.095         515.120            
       1.100           0.000                   1.100         487.720            
       1.105           0.000                   1.105         465.800            
       1.110           0.000                   1.110         432.920            
       1.115           0.000                   1.115         397.300            
       1.120           0.000                   1.120         358.940            
       1.125           0.000                   1.125         332.500            
       1.130           0.000                   1.130         281.960            
       1.135           0.000                   1.135         239.400            
       1.140           0.000                   1.140         188.860            
       1.145           0.000                   1.145         134.330            
       1.150           0.000                   1.150          89.110            
       1.155           0.000                   1.155          51.870            
       1.160           0.000                   1.160           1.330            
       1.165           0.000                   1.165           0.000            
       1.170           0.000                   1.170           0.000            
       1.175           0.000                   1.175           0.000            
       1.180           0.000                   1.180           0.000            
       1.185           0.000                   1.185           0.000            
       1.190           0.000                   1.190           0.000            
       1.195           0.000                   1.195           0.000            
       1.200           0.000                   1.200           0.000            
       1.205           0.000                   1.205           0.000            
       1.210           0.000                   1.210           2.490            
       1.215           0.000                   1.215           2.490            
       1.220           0.000                   1.220           2.490            
       1.225           0.000                   1.225           2.490            
       1.230           0.000                   1.230           7.500            
       1.235           0.000                   1.235           2.490            
       1.240           0.000                   1.240           4.980            
       1.245           0.000                   1.245           0.000            
       1.250           0.000                   1.250           0.000            
       1.255           0.000                   1.255           0.000            
       1.260           0.000                   1.260           2.490            
       1.265           0.000                   1.265           2.490            
       1.270           0.000                   1.270           0.000            
       1.275           0.000                   1.275           5.000            
       1.280           0.000                   1.280           0.000            
       1.285           0.000                   1.285           0.000            
       1.290           0.000                   1.290           0.000            
       1.295           0.000                   1.295           0.000            
       1.300           0.000                   1.300           0.000            
       1.305           0.000                   1.305           0.000            
       1.310           0.000                   1.310           0.000            
       1.315           0.000                   1.315           0.000            
       1.320           0.000                   1.320           0.000            
       1.325           0.000                   1.325           0.000            
       1.330           0.000                   1.330           0.000            
       1.335           0.000                   1.335           0.000            
       1.340           0.000                   1.340           0.000            
       1.345           0.000                   1.345           0.000            
       1.350           0.000                   1.350           0.000            
       1.355           0.000                   1.355           0.000            
       1.360           0.000                   1.360           0.000            
       1.365           0.000                   1.365           0.000            
       1.370           0.000                   1.370           0.000            
       1.375           0.000                   1.375           0.000            
       1.380           0.000                   1.380           0.000            
       1.385           0.000                   1.385           0.000            
       1.390           0.000                   1.390         183.680            
       1.395           0.000                   1.395         522.340            
       1.400           0.000                   1.400         539.560            
       1.405           0.000                   1.405         568.260            
       1.410           0.000                   1.410         648.620            
       1.415           0.000                   1.415         849.520            
       1.420           0.000                   1.420        1435.000            
       1.425           0.000                   1.425        1805.000            
       1.430           0.000                   1.430        1768.900            
       1.435           0.000                   1.435        1617.280            
       1.440           0.000                   1.440        1422.340            
       1.445           0.000                   1.445        1241.840            
       1.450           0.000                   1.450        1104.660            
       1.455           0.000                   1.455        1032.460            
       1.460           0.000                   1.460        1018.020            
       1.465           0.000                   1.465        1018.020            
       1.470           0.000                   1.470         996.360            
       1.475           0.000                   1.475         974.700            
       1.480           0.000                   1.480         967.480            
       1.485           0.000                   1.485         967.480            
       1.490           0.000                   1.490         974.700            
       1.495           0.000                   1.495         981.920            
       1.500           0.000                   1.500        1000.000            
       1.505           0.000                   1.505         996.000            
       1.510           0.000                   1.510         984.000            
       1.515           0.000                   1.515         988.000            
       1.520           0.000                   1.520         980.000            
       1.525           0.000                   1.525         984.000            
       1.530           0.000                   1.530         952.000            
       1.535           0.000                   1.535         932.000            
       1.540           0.000                   1.540         908.000            
       1.545           0.000                   1.545         884.000            
       1.550           0.000                   1.550         860.000            
       1.555           0.000                   1.555         852.000            
       1.560           0.000                   1.560         828.000            
       1.565           0.000                   1.565         812.000            
       1.570           0.000                   1.570         804.000            
       1.575           0.000                   1.575         802.500            
       1.580           0.000                   1.580         789.660            
       1.585           0.000                   1.585         776.820            
       1.590           0.000                   1.590         770.400            
       1.595           0.000                   1.595         767.190            
       1.600           0.000                   1.600         757.560            
       1.605           0.000                   1.605         747.930            
       1.610           0.000                   1.610         744.720            
       1.615           0.000                   1.615         738.300            
       1.620           0.000                   1.620         731.880            
       1.625           0.000                   1.625         722.250            
       1.630           0.000                   1.630         715.830            
       1.635           0.000                   1.635         709.410            
       1.640           0.000                   1.640         699.780            
       1.645           0.000                   1.645         696.570            
       1.650           0.000                   1.650         697.500            
       1.655           0.000                   1.655         677.970            
       1.660           0.000                   1.660         666.810            
       1.665           0.000                   1.665         664.020            
       1.670           0.000                   1.670         655.650            
       1.675           0.000                   1.675         650.070            
       1.680           0.000                   1.680         641.700            
       1.685           0.000                   1.685         641.700            
       1.690           0.000                   1.690         636.120            
       1.695           0.000                   1.695         630.540            
       1.700           0.000                   1.700         624.960            
       1.705           0.000                   1.705         622.170            
       1.710           0.000                   1.710         624.960            
       1.715           0.000                   1.715         616.590            
       1.720           0.000                   1.720         611.010            
       1.725           0.000                   1.725         617.500            
       1.730           0.000                   1.730         597.740            
       1.735           0.000                   1.735         592.800            
       1.740           0.000                   1.740         590.330            
       1.745           0.000                   1.745         582.920            
       1.750           0.000                   1.750         577.980            
       1.755           0.000                   1.755         577.980            
       1.760           0.000                   1.760         563.160            
       1.765           0.000                   1.765         553.280            
       1.770           0.000                   1.770         553.280            
       1.775           0.000                   1.775         545.870            
       1.780           0.000                   1.780         540.930            
       1.785           0.000                   1.785         535.990            
       1.790           0.000                   1.790         528.580            
       1.795           0.000                   1.795         523.640            
       1.800           0.000                   1.800         532.500            
       1.805           0.000                   1.805         519.720            
       1.810           0.000                   1.810         509.070            
       1.815           0.000                   1.815         509.070            
       1.820           0.000                   1.820         504.810            
       1.825           0.000                   1.825         506.940            
       1.830           0.000                   1.830         506.940            
       1.835           0.000                   1.835         509.070            
       1.840           0.000                   1.840         504.810            
       1.845           0.000                   1.845         500.550            
       1.850           0.000                   1.850         498.420            
       1.855           0.000                   1.855         494.160            
       1.860           0.000                   1.860         500.550            
       1.865           0.000                   1.865         494.160            
       1.870           0.000                   1.870         494.160            
       1.875           0.000                   1.875         502.500            
       1.880           0.000                   1.880         494.460            
       1.885           0.000                   1.885         494.460            
       1.890           0.000                   1.890         492.450            
       1.895           0.000                   1.895         492.450            
       1.900           0.000                   1.900         494.460            
       1.905           0.000                   1.905         494.460            
       1.910           0.000                   1.910         494.460            
       1.915           0.000                   1.915         492.450            
       1.920           0.000                   1.920         494.460            
       1.925           0.000                   1.925         492.450            
       1.930           0.000                   1.930         494.460            
       1.935           0.000                   1.935         494.460            
       1.940           0.000                   1.940         498.480            
       1.945           0.000                   1.945         496.470            
       1.950           0.000                   1.950         500.000            
       1.955           0.000                   1.955         494.000            
       1.960           0.000                   1.960         494.000            
       1.965           0.000                   1.965         494.000            
       1.970           0.000                   1.970         500.000            
       1.975           0.000                   1.975         492.000            
       1.980           0.000                   1.980         494.000            
       1.985           0.000                   1.985         490.000            
       1.990           0.000                   1.990         492.000            
       1.995           0.000                   1.995         484.000            
       2.000           0.000                   2.000         490.000            
       2.005           0.000                   2.005         480.000            
       2.010           0.000                   2.010         480.000            
       2.015           0.000                   2.015         480.000            
       2.020           0.000                   2.020         472.000            
       2.025           0.000                   2.025         480.000            
       2.030           0.000                   2.030         466.560            
       2.035           0.000                   2.035         466.560            
       2.040           0.000                   2.040         466.560            
       2.045           0.000                   2.045         468.480            
       2.050           0.000                   2.050         464.640            
       2.055           0.000                   2.055         464.640            
       2.060           0.000                   2.060         464.640            
       2.065           0.000                   2.065         460.800            
       2.070           0.000                   2.070         460.800            
       2.075           0.000                   2.075         464.640            
       2.080           0.000                   2.080         458.880            
       2.085           0.000                   2.085         460.800            
       2.090           0.000                   2.090         458.880            
       2.095           0.000                   2.095         460.800            
       2.100           0.000                   2.100         468.480            
       2.105           0.000                   2.105         460.800            
       2.110           0.000                   2.110         458.880            
       2.115           0.000                   2.115         464.640            
       2.120           0.000                   2.120         460.800            
       2.125           0.000                   2.125         472.320            
       2.130           0.000                   2.130         472.320            
       2.135           0.000                   2.135         468.480            
       2.140           0.000                   2.140         472.320            
       2.145           0.000                   2.145         476.160            
       2.150           0.000                   2.150         476.160            
       2.155           0.000                   2.155         480.000            
       2.160           0.000                   2.160         474.240            
       2.165           0.000                   2.165         474.240            
       2.170           0.000                   2.170         480.000            
       2.175           0.000                   2.175         484.120            
       2.180           0.000                   2.180         478.240            
       2.185           0.000                   2.185         490.000            
       2.190           0.000                   2.190         484.120            
       2.195           0.000                   2.195         476.280            
       2.200           0.000                   2.200         476.280            
       2.205           0.000                   2.205         482.160            
       2.210           0.000                   2.210         478.240            
       2.215           0.000                   2.215         482.160            
       2.220           0.000                   2.220         476.280            
       2.225           0.000                   2.225         474.320            
       2.230           0.000                   2.230         474.320            
       2.235           0.000                   2.235         468.440            
       2.240           0.000                   2.240         472.360            
       2.245           0.000                   2.245         472.360            
       2.250           0.000                   2.250         473.850            
       2.255           0.000                   2.255         471.900            
       2.260           0.000                   2.260         469.950            
       2.265           0.000                   2.265         464.100            
       2.270           0.000                   2.270         466.050            
       2.275           0.000                   2.275         471.900            
       2.280           0.000                   2.280         473.850            
       2.285           0.000                   2.285         473.850            
       2.290           0.000                   2.290         479.700            
       2.295           0.000                   2.295         475.800            
       2.300           0.000                   2.300         479.700            
       2.305           0.000                   2.305         481.650            
       2.310           0.000                   2.310         483.600            
       2.315           0.000                   2.315         483.600            
       2.320           0.000                   2.320         487.500            
       2.325           0.000                   2.325         494.000            
       2.330           0.000                   2.330         492.000            
       2.335           0.000                   2.335         486.000            
       2.340           0.000                   2.340         500.000            
       2.345           0.000                   2.345         490.000            
       2.350           0.000                   2.350         486.000            
       2.355           0.000                   2.355         490.000            
       2.360           0.000                   2.360         486.000            
       2.365           0.000                   2.365         486.000            
       2.370           0.000                   2.370         484.000            
       2.375           0.000                   2.375         484.000            
       2.380           0.000                   2.380         480.000            
       2.385           0.000                   2.385         482.000            
       2.390           0.000                   2.390         480.000            
       2.395           0.000                   2.395         482.000            
       2.400           0.000                   2.400         496.000            
       2.405           0.000                   2.405         486.000            
       2.410           0.000                   2.410         490.000            
       2.415           0.000                   2.415         492.000            
       2.420           0.000                   2.420         490.000            
       2.425           0.000                   2.425         492.000            
       2.430           0.000                   2.430         494.000            
       2.435           0.000                   2.435         494.000            
       2.440           0.000                   2.440         494.000            
       2.445           0.000                   2.445         500.000            
       2.450           0.000                   2.450         494.000            
       2.455           0.000                   2.455         494.000            
       2.460           0.000                   2.460         494.000            
       2.465           0.000                   2.465         492.000            
       2.470           0.000                   2.470         490.000            
       2.475           0.000                   2.475         498.480            
       2.480           0.000                   2.480         498.480            
       2.485           0.000                   2.485         496.470            
       2.490           0.000                   2.490         498.480            
       2.495           0.000                   2.495         496.470            
       2.500           0.000                   2.500         498.480            
       2.505           0.000                   2.505         496.470            
       2.510           0.000                   2.510         502.500            
       2.515           0.000                   2.515         496.470            
       2.520           0.000                   2.520         496.470            
       2.525           0.000                   2.525         496.470            
       2.530           0.000                   2.530         494.460            
       2.535           0.000                   2.535         492.450            
       2.540           0.000                   2.540         496.470            
       2.545           0.000                   2.545         488.430            
       2.550           0.000                   2.550         497.500            
       2.555           0.000                   2.555         491.530            
       2.560           0.000                   2.560         485.560            
       2.565           0.000                   2.565         489.540            
       2.570           0.000                   2.570         485.560            
       2.575           0.000                   2.575         489.540            
       2.580           0.000                   2.580         491.530            
       2.585           0.000                   2.585         491.530            
       2.590           0.000                   2.590         491.530            
       2.595           0.000                   2.595         489.540            
       2.600           0.000                   2.600         493.520            
       2.605           0.000                   2.605         491.530            
       2.610           0.000                   2.610         491.530            
       2.615           0.000                   2.615         497.500            
       2.620           0.000                   2.620         491.530            
       2.625           0.000                   2.625         503.440            
       2.630           0.000                   2.630         499.380            
       2.635           0.000                   2.635         497.350            
       2.640           0.000                   2.640         503.440            
       2.645           0.000                   2.645         501.410            
       2.650           0.000                   2.650         503.440            
       2.655           0.000                   2.655         503.440            
       2.660           0.000                   2.660         499.380            
       2.665           0.000                   2.665         501.410            
       2.670           0.000                   2.670         507.500            
       2.675           0.000                   2.675         503.440            
       2.680           0.000                   2.680         501.410            
       2.685           0.000                   2.685         499.380            
       2.690           0.000                   2.690         501.410            
       2.695           0.000                   2.695         503.440            
       2.700           0.000                   2.700         507.500            
       2.705           0.000                   2.705         503.440            
       2.710           0.000                   2.710         501.410            
       2.715           0.000                   2.715         503.440            
       2.720           0.000                   2.720         501.410            
       2.725           0.000                   2.725         507.500            
       2.730           0.000                   2.730         501.410            
       2.735           0.000                   2.735         499.380            
       2.740           0.000                   2.740         499.380            
       2.745           0.000                   2.745         501.410            
       2.750           0.000                   2.750         499.380            
       2.755           0.000                   2.755         493.290            
       2.760           0.000                   2.760         503.440            
       2.765           0.000                   2.765         499.380            
       2.770           0.000                   2.770         497.350            
       2.775           0.000                   2.775         505.000            
       2.780           0.000                   2.780         496.920            
       2.785           0.000                   2.785         494.900            
       2.790           0.000                   2.790         496.920            
       2.795           0.000                   2.795         496.920            
       2.800           0.000                   2.800         490.860            
       2.805           0.000                   2.805         490.860            
       2.810           0.000                   2.810         488.840            
       2.815           0.000                   2.815         488.840            
       2.820           0.000                   2.820         486.820            
       2.825           0.000                   2.825         486.820            
       2.830           0.000                   2.830         488.840            
       2.835           0.000                   2.835         488.840            
       2.840           0.000                   2.840         488.840            
       2.845           0.000                   2.845         488.840            
       2.850           0.000                   2.850         500.000            
       2.855           0.000                   2.855         490.000            
       2.860           0.000                   2.860         484.000            
       2.865           0.000                   2.865         486.000            
       2.870           0.000                   2.870         486.000            
       2.875           0.000                   2.875         490.000            
       2.880           0.000                   2.880         486.000            
       2.885           0.000                   2.885         486.000            
       2.890           0.000                   2.890         486.000            
       2.895           0.000                   2.895         490.000            
       2.900           0.000                   2.900         486.000            
       2.905           0.000                   2.905         492.000            
       2.910           0.000                   2.910         492.000            
       2.915           0.000                   2.915         490.000            
       2.920           0.000                   2.920         494.000            
       2.925           0.000                   2.925         502.500            
       2.930           0.000                   2.930         494.460            
       2.935           0.000                   2.935         492.450            
       2.940           0.000                   2.940         496.470            
       2.945           0.000                   2.945         488.430            
       2.950           0.000                   2.950         492.450            
       2.955           0.000                   2.955         488.430            
       2.960           0.000                   2.960         488.430            
       2.965           0.000                   2.965         494.460            
       2.970           0.000                   2.970         492.450            
       2.975           0.000                   2.975         494.460            
       2.980           0.000                   2.980         492.450            
       2.985           0.000                   2.985         494.460            
       2.990           0.000                   2.990         496.470            
       2.995           0.000                   2.995         492.450            
       3.000           0.000                   3.000         505.920            
       3.005           0.000                   3.005         501.840            
       3.010           0.000                   3.010         499.800            
       3.015           0.000                   3.015         501.840            
       3.020           0.000                   3.020         499.800            
       3.025           0.000                   3.025         499.800            
       3.030           0.000                   3.030         505.920            
       3.035           0.000                   3.035         501.840            
       3.040           0.000                   3.040         503.880            
       3.045           0.000                   3.045         503.880            
       3.050           0.000                   3.050         510.000            
       3.055           0.000                   3.055         501.840            
       3.060           0.000                   3.060         503.880            
       3.065           0.000                   3.065         499.800            
       3.070           0.000                   3.070         499.800            
       3.075           0.000                   3.075         505.000            
       3.080           0.000                   3.080         496.920            
       3.085           0.000                   3.085         496.920            
       3.090           0.000                   3.090         494.900            
       3.095           0.000                   3.095         490.860            
       3.100           0.000                   3.100         496.920            
       3.105           0.000                   3.105         490.860            
       3.110           0.000                   3.110         490.860            
       3.115           0.000                   3.115         490.860            
       3.120           0.000                   3.120         488.840            
       3.125           0.000                   3.125         494.900            
       3.130           0.000                   3.130         494.900            
       3.135           0.000                   3.135         494.900            
       3.140           0.000                   3.140         494.900            
       3.145           0.000                   3.145         490.860            
       3.150           0.000                   3.150         502.500            
       3.155           0.000                   3.155         494.460            
       3.160           0.000                   3.160         494.460            
       3.165           0.000                   3.165         494.460            
       3.170           0.000                   3.170         494.460            
       3.175           0.000                   3.175         494.460            
       3.180           0.000                   3.180         494.460            
       3.185           0.000                   3.185         494.460            
       3.190           0.000                   3.190         492.450            
       3.195           0.000                   3.195         494.460            
       3.200           0.000                   3.200         496.470            
       3.205           0.000                   3.205         494.460            
       3.210           0.000                   3.210         496.470            
       3.215           0.000                   3.215         494.460            
       3.220           0.000                   3.220         498.480            
       3.225           0.000                   3.225         503.440            
       3.230           0.000                   3.230         499.380            
       3.235           0.000                   3.235         501.410            
       3.240           0.000                   3.240         499.380            
       3.245           0.000                   3.245         501.410            
       3.250           0.000                   3.250         501.410            
       3.255           0.000                   3.255         501.410            
       3.260           0.000                   3.260         501.410            
       3.265           0.000                   3.265         507.500            
       3.270           0.000                   3.270         507.500            
       3.275           0.000                   3.275         507.500            
       3.280           0.000                   3.280         503.440            
       3.285           0.000                   3.285         507.500            
       3.290           0.000                   3.290         501.410            
       3.295           0.000                   3.295         501.410            
       3.300           0.000                   3.300         512.500            
       3.305           0.000                   3.305         502.250            
       3.310           0.000                   3.310         498.150            
       3.315           0.000                   3.315         502.250            
       3.320           0.000                   3.320         496.100            
       3.325           0.000                   3.325         498.150            
       3.330           0.000                   3.330         504.300            
       3.335           0.000                   3.335         502.250            
       3.340           0.000                   3.340         502.250            
       3.345           0.000                   3.345         502.250            
       3.350           0.000                   3.350         498.150            
       3.355           0.000                   3.355         502.250            
       3.360           0.000                   3.360         498.150            
       3.365           0.000                   3.365         498.150            
       3.370           0.000                   3.370         498.150            
       3.375           0.000                   3.375         510.000            
       3.380           0.000                   3.380         503.880            
       3.385           0.000                   3.385         495.720            
       3.390           0.000                   3.390         499.800            
       3.395           0.000                   3.395         495.720            
       3.400           0.000                   3.400         499.800            
       3.405           0.000                   3.405         495.720            
       3.410           0.000                   3.410         495.720            
       3.415           0.000                   3.415         495.720            
       3.420           0.000                   3.420         495.720            
       3.425           0.000                   3.425         493.680            
       3.430           0.000                   3.430         495.720            
       3.435           0.000                   3.435         491.640            
       3.440           0.000                   3.440         493.680            
       3.445           0.000                   3.445         493.680            
       3.450           0.000            ************.***    ********.**         
       3.455           0.000            ************.***    ********.**         
       3.460           0.000            ************.***    ********.**         
       3.465           0.000            ************.***    ********.**         
       3.470           0.000            ************.***    ********.**         
       3.475           0.000            ************.***    ********.**         
       3.480           0.000            ************.***    ********.**         
       3.485           0.000            ************.***    ********.**         
       3.490           0.000            ************.***    ********.**         
       3.495           0.000            ************.***    ********.**         
       3.500           0.000            ************.***    ********.**         
       3.505           0.000            ************.***    ********.**         
       3.510           0.000            ************.***    ********.**         
       3.515           0.000            ************.***    ********.**         
       3.520           0.000            ************.***    ********.**         
       3.525           0.000            ************.***    ********.**         
       3.530           0.000            ************.***    ********.**         
       3.535           0.000            ************.***    ********.**         
       3.540           0.000            ************.***    ********.**         
       3.545           0.000            ************.***    ********.**         
       3.550           0.000            ************.***    ********.**         
       3.555           0.000            ************.***    ********.**         
       3.560           0.000            ************.***    ********.**         
       3.565           0.000            ************.***    ********.**         
       3.570           0.000            ************.***    ********.**         
       3.575           0.000            ************.***    ********.**         
       3.580           0.000            ************.***    ********.**         
       3.585           0.000            ************.***    ********.**         
       3.590           0.000            ************.***    ********.**         
       3.595           0.000            ************.***    ********.**         
       3.600           0.000            ************.***    ********.**         
       3.605           0.000            ************.***    ********.**         
       3.610           0.000            ************.***    ********.**         
       3.615           0.000            ************.***    ********.**         
       3.620           0.000            ************.***    ********.**         
       3.625           0.000            ************.***    ********.**         
       3.630           0.000            ************.***    ********.**         
       3.635           0.000            ************.***    ********.**         
       3.640           0.000            ************.***    ********.**         
       3.645           0.000            ************.***    ********.**         
       3.650           0.000            ************.***    ********.**         
       3.655           0.000            ************.***    ********.**         
       3.660           0.000            ************.***    ********.**         
       3.665           0.000            ************.***    ********.**         
       3.670           0.000            ************.***    ********.**         
